All Layer Optical Constants
Wavelength (nm)	n, a-Si parameterized	k, a-Si parameterized
381.277405	3.945787	1.677078	
382.449768	3.952425	1.663265	
383.629333	3.958910	1.649379	
384.816223	3.965240	1.635421	
386.010468	3.971414	1.621396	
387.212189	3.977430	1.607304	
388.421387	3.983288	1.593149	
389.638153	3.988985	1.578935	
390.862579	3.994521	1.564663	
392.094727	3.999894	1.550336	
393.334656	4.005103	1.535958	
394.582458	4.010148	1.521531	
395.838196	4.015027	1.507059	
397.101959	4.019739	1.492543	
398.373810	4.024283	1.477988	
399.653870	4.028660	1.463395	
400.942108	4.032867	1.448769	
402.238739	4.036905	1.434112	
403.543762	4.040773	1.419427	
404.857300	4.044470	1.404717	
406.179382	4.047996	1.389986	
407.510193	4.051351	1.375236	
408.849670	4.054535	1.360471	
410.198059	4.057547	1.345693	
411.555267	4.060387	1.330907	
412.921570	4.063055	1.316113	
414.296967	4.065551	1.301316	
415.681549	4.067876	1.286520	
417.075378	4.070029	1.271727	
418.478668	4.072012	1.256939	
419.891357	4.073823	1.242161	
421.313660	4.075464	1.227394	
422.745605	4.076936	1.212643	
424.187347	4.078238	1.197910	
425.638916	4.079370	1.183199	
427.100494	4.080336	1.168511	
428.572113	4.081133	1.153850	
430.053955	4.081765	1.139219	
431.545990	4.082231	1.124621	
433.048523	4.082532	1.110058	
434.561462	4.082670	1.095534	
436.085114	4.082645	1.081051	
437.619385	4.082459	1.066612	
439.164551	4.082113	1.052220	
440.720612	4.081608	1.037877	
442.287781	4.080945	1.023586	
443.866119	4.080126	1.009349	
445.455811	4.079152	0.995169	
447.056824	4.078025	0.981050	
448.669495	4.076746	0.966992	
450.293793	4.075317	0.952998	
451.929932	4.073740	0.939071	
453.577942	4.072015	0.925214	
455.238098	4.070145	0.911427	
456.910339	4.068132	0.897715	
458.595032	4.065977	0.884077	
460.292084	4.063682	0.870519	
462.001801	4.061248	0.857039	
463.724274	4.058679	0.843642	
465.459625	4.055975	0.830329	
467.208008	4.053139	0.817101	
468.969574	4.050173	0.803961	
470.744476	4.047079	0.790911	
472.532867	4.043858	0.777951	
474.334900	4.040513	0.765085	
476.150696	4.037046	0.752313	
477.980530	4.033459	0.739637	
479.824371	4.029754	0.727060	
481.682556	4.025933	0.714580	
483.555237	4.021998	0.702202	
485.442474	4.017952	0.689925	
487.344482	4.013797	0.677752	
489.261536	4.009535	0.665683	
491.193665	4.005168	0.653720	
493.141113	4.000698	0.641863	
495.104065	3.996128	0.630115	
497.082764	3.991460	0.618475	
499.077240	3.986696	0.606946	
501.087891	3.981838	0.595527	
503.114746	3.976888	0.584221	
505.158112	3.971849	0.573027	
507.218079	3.966723	0.561946	
509.294983	3.961513	0.550980	
511.388855	3.956219	0.540129	
513.500122	3.950846	0.529392	
515.628845	3.945394	0.518773	
517.775330	3.939866	0.508270	
519.939758	3.934265	0.497884	
522.122375	3.928592	0.487616	
524.323303	3.922850	0.477466	
526.542969	3.917040	0.467434	
528.781372	3.911166	0.457522	
531.039063	3.905229	0.447728	
533.315979	3.899231	0.438055	
535.612610	3.893175	0.428500	
537.929016	3.887062	0.419065	
540.265564	3.880895	0.409751	
542.622498	3.874676	0.400556	
545.000122	3.868406	0.391481	
547.398621	3.862089	0.382527	
549.818420	3.855725	0.373692	
552.259644	3.849317	0.364978	
554.722656	3.842867	0.356384	
557.207642	3.836378	0.347910	
559.715149	3.829850	0.339555	
562.245239	3.823286	0.331320	
564.798340	3.816688	0.323204	
567.374634	3.810057	0.315207	
569.974731	3.803396	0.307329	
572.598572	3.796707	0.299570	
575.246826	3.789991	0.291929	
577.919556	3.783250	0.284406	
580.617371	3.776486	0.277000	
583.340393	3.769701	0.269712	
586.089172	3.762897	0.262540	
588.863892	3.756075	0.255485	
591.665039	3.749236	0.248545	
594.492920	3.742384	0.241721	
597.348022	3.735519	0.235012	
600.230652	3.728643	0.228417	
603.141296	3.721757	0.221935	
606.080200	3.714864	0.215567	
609.047974	3.707965	0.209311	
612.044922	3.701062	0.203167	
615.071594	3.694155	0.197135	
618.128235	3.687247	0.191213	
621.215454	3.680339	0.185401	
624.333618	3.673433	0.179699	
627.483276	3.666530	0.174105	
630.664917	3.659631	0.168619	
633.878906	3.652739	0.163240	
637.125854	3.645853	0.157968	
640.406311	3.638977	0.152802	
643.720581	3.632110	0.147740	
647.069458	3.625255	0.142783	
650.453308	3.618412	0.137929	
653.872742	3.611584	0.133178	
657.328308	3.604771	0.128528	
660.820679	3.597975	0.123980	
664.350220	3.591196	0.119531	
667.917786	3.584436	0.115182	
671.523804	3.577697	0.110931	
675.168945	3.570980	0.106778	
678.853943	3.564284	0.102721	
682.579346	3.557613	0.098761	
686.345886	3.550967	0.094895	
690.154175	3.544346	0.091123	
694.005005	3.537752	0.087445	
697.899048	3.531187	0.083858	
701.837036	3.524651	0.080363	
705.819763	3.518145	0.076958	
709.847900	3.511671	0.073643	
713.922241	3.505228	0.070416	
718.043701	3.498819	0.067277	
722.213013	3.492444   	0.064224	
726.430969	3.486104	0.061257	
730.698486	3.479800	0.058375	
735.016479	3.473534	0.055576	
739.385742	3.467305	0.052861	
743.807312	3.461115	0.050227	
748.282104	3.454964	0.047673	
752.811035	3.448854	0.045200	
757.395142	3.442786	0.042805	
762.035400	3.436759	0.040489	
766.732849	3.430775	0.038249	
771.488647	3.424835	0.036085	
776.303772	3.418940	0.033996	
781.179321	3.413090	0.031980	
786.116577	3.407286	0.030038	
791.116577	3.401528	0.028167	
796.180603	3.395819	0.026367	
801.309937	3.390157	0.024637	
806.505737	3.384544	0.022976	
811.769409	3.378981	0.021383	
817.102173	3.373468	0.019856	
822.505493	3.368006	0.018395	
827.980774	3.362596	0.016999	
833.529419	3.357238	0.015666	
839.152832	3.351933	0.014397	
844.852722	3.346681	0.013188	
850.630676	3.341483	0.012041	
856.488098	3.336340	0.010953	
862.426758	3.331253	0.009923	
868.448364	3.326222	0.008951	
874.554565	3.321247	0.008036	
880.747375	3.316330	0.007176	
887.028442	3.311470	0.006370	
893.399780	3.306669	0.005618	